FILE NAME   = 3-1-100           
SAMPLE NAME = Unknow    
TARGET      = Cu
AXIS        =  1 
START ANGLE =  98 
STOP ANGLE  =  103.5 
STEP WIDTH  =  .01 
DATA NUMBER =  551 
 98         1182 
 98.01      1218 
 98.02      1272 
 98.03      1216 
 98.04      1204 
 98.05      1260 
 98.06      1334 
 98.07      1282 
 98.08      1258 
 98.09      1280 
 98.1       1342 
 98.11      1245 
 98.12      1281 
 98.13      1364 
 98.14      1304 
 98.15      1352 
 98.16      1294 
 98.17      1352 
 98.18      1294 
 98.19      1349 
 98.2       1270 
 98.21      1368 
 98.22      1359 
 98.23      1364 
 98.24      1309 
 98.25      1377 
 98.26      1391 
 98.27      1433 
 98.28      1419 
 98.29      1387 
 98.3       1465 
 98.31      1449 
 98.32      1500 
 98.33      1419 
 98.34      1441 
 98.35      1438 
 98.36      1461 
 98.37      1543 
 98.38      1429 
 98.39      1451 
 98.4       1506 
 98.41      1479 
 98.42      1515 
 98.43      1474 
 98.44      1466 
 98.45      1475 
 98.46      1492 
 98.47      1531 
 98.48      1541 
 98.49      1520 
 98.5       1556 
 98.51      1579 
 98.52      1589 
 98.53      1563 
 98.54      1641 
 98.55      1650 
 98.56      1624 
 98.57      1677 
 98.58      1608 
 98.59      1618 
 98.6       1589 
 98.61      1686 
 98.62      1649 
 98.63      1697 
 98.64      1632 
 98.65      1654 
 98.66      1632 
 98.67      1730 
 98.68      1753 
 98.69      1750 
 98.7       1733 
 98.71      1797 
 98.72      1697 
 98.73      1791 
 98.74      1852 
 98.75      1856 
 98.76      1863 
 98.77      1811 
 98.78      1911 
 98.79      1902 
 98.8       1890 
 98.81      1888 
 98.82      1900 
 98.83      1927 
 98.84      1936 
 98.85      1935 
 98.86      1991 
 98.87      2092 
 98.88      2012 
 98.89      2069 
 98.9       2020 
 98.91      2033 
 98.92      2076 
 98.93      2202 
 98.94      2083 
 98.95      2110 
 98.96      2222 
 98.97      2236 
 98.98      2215 
 98.99      2209 
 99         2341 
 99.01      2302 
 99.02      2325 
 99.03      2337 
 99.04      2384 
 99.05      2411 
 99.06      2404 
 99.07      2412 
 99.08      2434 
 99.09      2453 
 99.1       2381 
 99.11      2515 
 99.12      2536 
 99.13      2600 
 99.14      2707 
 99.15      2678 
 99.16      2726 
 99.17      2767 
 99.18      2769 
 99.19      2854 
 99.2       2814 
 99.21      2901 
 99.22      2877 
 99.23      2960 
 99.24      3036 
 99.25      3056 
 99.26      3197 
 99.27      3172 
 99.28      3233 
 99.29      3278 
 99.3       3409 
 99.31      3380 
 99.32      3528 
 99.33      3485 
 99.34      3569 
 99.35      3648 
 99.36      3695 
 99.37      3723 
 99.38      3812 
 99.39      3682 
 99.4       3815 
 99.41      4051 
 99.42      4132 
 99.43      4080 
 99.44      4212 
 99.45      4187 
 99.46      4482 
 99.47      4396 
 99.48      4518 
 99.49      4743 
 99.5       4756 
 99.51      4881 
 99.52      4873 
 99.53      5049 
 99.54      5231 
 99.55      5181 
 99.56      5328 
 99.57      5512 
 99.58      5544 
 99.59      5716 
 99.6       5912 
 99.61      6048 
 99.62      6276 
 99.63      6127 
 99.64      6529 
 99.65      6499 
 99.66      6846 
 99.67      6805 
 99.68      6929 
 99.69      7212 
 99.7       7423 
 99.71      7405 
 99.72      7695 
 99.73      7985 
 99.74      8118 
 99.75      8198 
 99.76      8402 
 99.77      8802 
 99.78      8956 
 99.79      9319 
 99.8       9535 
 99.81      9630 
 99.82      10047 
 99.83      10249 
 99.84      10543 
 99.85      10789 
 99.86      11041 
 99.87      11560 
 99.88      11704 
 99.89      11927 
 99.9       12215 
 99.91      12652 
 99.92      13210 
 99.93      13535 
 99.94      13886 
 99.95      14221 
 99.96      14618 
 99.97      15072 
 99.98      15707 
 99.99      16215 
 100        16411 
 100.01     17005 
 100.02     17454 
 100.03     17946 
 100.04     18613 
 100.05     19307 
 100.06     19813 
 100.07     20479 
 100.08     21228 
 100.09     21875 
 100.1      22503 
 100.11     23130 
 100.12     23662 
 100.13     24625 
 100.14     25449 
 100.15     25727 
 100.16     26913 
 100.17     27508 
 100.18     28500 
 100.19     28962 
 100.2      30056 
 100.21     30969 
 100.22     32029 
 100.23     32403 
 100.24     33740 
 100.25     34610 
 100.26     35295 
 100.27     36238 
 100.28     37177 
 100.29     38002 
 100.3      39039 
 100.31     39877 
 100.32     40928 
 100.33     41807 
 100.34     43072 
 100.35     43517 
 100.36     44470 
 100.37     45563 
 100.38     46097 
 100.39     46765 
 100.4      48085 
 100.41     48461 
 100.42     48784 
 100.43     49429 
 100.44     50121 
 100.45     50614 
 100.46     50639 
 100.47     50831 
 100.48     50985 
 100.49     50724 
 100.5      50590 
 100.51     50224 
 100.52     50009 
 100.53     49445 
 100.54     48947 
 100.55     48221 
 100.56     47763 
 100.57     47138 
 100.58     46161 
 100.59     45417 
 100.6      45104 
 100.61     44276 
 100.62     43815 
 100.63     43198 
 100.64     42039 
 100.65     41879 
 100.66     41249 
 100.67     40983 
 100.68     40019 
 100.69     39638 
 100.7      39209 
 100.71     38688 
 100.72     38298 
 100.73     38123 
 100.74     37154 
 100.75     37177 
 100.76     36493 
 100.77     35916 
 100.78     35724 
 100.79     35071 
 100.8      34520 
 100.81     34142 
 100.82     33590 
 100.83     32824 
 100.84     32364 
 100.85     31425 
 100.86     31199 
 100.87     30164 
 100.88     29349 
 100.89     28544 
 100.9      27900 
 100.91     27087 
 100.92     25999 
 100.93     25172 
 100.94     24502 
 100.95     23869 
 100.96     22857 
 100.97     22092 
 100.98     21679 
 100.99     20846 
 101        20346 
 101.01     19643 
 101.02     19040 
 101.03     18186 
 101.04     17714 
 101.05     17078 
 101.06     16615 
 101.07     16059 
 101.08     15444 
 101.09     14916 
 101.1      14500 
 101.11     14181 
 101.12     13536 
 101.13     13066 
 101.14     13069 
 101.15     12349 
 101.16     11987 
 101.17     11687 
 101.18     11576 
 101.19     11095 
 101.2      10702 
 101.21     10309 
 101.22     10312 
 101.23     9779 
 101.24     9795 
 101.25     9225 
 101.26     9041 
 101.27     8842 
 101.28     8638 
 101.29     8367 
 101.3      8057 
 101.31     7950 
 101.32     7858 
 101.33     7518 
 101.34     7372 
 101.35     7247 
 101.36     7115 
 101.37     6930 
 101.38     6616 
 101.39     6482 
 101.4      6360 
 101.41     6362 
 101.42     6174 
 101.43     5972 
 101.44     5850 
 101.45     5733 
 101.46     5669 
 101.47     5608 
 101.48     5340 
 101.49     5226 
 101.5      5261 
 101.51     5084 
 101.52     5007 
 101.53     4869 
 101.54     4784 
 101.55     4757 
 101.56     4552 
 101.57     4499 
 101.58     4515 
 101.59     4465 
 101.6      4292 
 101.61     4110 
 101.62     4123 
 101.63     4109 
 101.64     3982 
 101.65     3919 
 101.66     3914 
 101.67     3815 
 101.68     3734 
 101.69     3840 
 101.7      3693 
 101.71     3539 
 101.72     3573 
 101.73     3542 
 101.74     3417 
 101.75     3384 
 101.76     3373 
 101.77     3287 
 101.78     3339 
 101.79     3102 
 101.8      3121 
 101.81     3043 
 101.82     3051 
 101.83     3038 
 101.84     3040 
 101.85     2937 
 101.86     2950 
 101.87     2786 
 101.88     2810 
 101.89     2732 
 101.9      2821 
 101.91     2656 
 101.92     2794 
 101.93     2636 
 101.94     2610 
 101.95     2545 
 101.96     2669 
 101.97     2595 
 101.98     2637 
 101.99     2544 
 102        2478 
 102.01     2384 
 102.02     2346 
 102.03     2420 
 102.04     2474 
 102.05     2347 
 102.06     2345 
 102.07     2310 
 102.08     2352 
 102.09     2276 
 102.1      2287 
 102.11     2218 
 102.12     2125 
 102.13     2268 
 102.14     2238 
 102.15     2155 
 102.16     2109 
 102.17     2170 
 102.18     2117 
 102.19     2066 
 102.2      2015 
 102.21     2040 
 102.22     2077 
 102.23     1997 
 102.24     1983 
 102.25     1976 
 102.26     1999 
 102.27     1924 
 102.28     1964 
 102.29     1913 
 102.3      1876 
 102.31     1869 
 102.32     1844 
 102.33     1875 
 102.34     1829 
 102.35     1826 
 102.36     1827 
 102.37     1807 
 102.38     1764 
 102.39     1809 
 102.4      1819 
 102.41     1717 
 102.42     1751 
 102.43     1768 
 102.44     1733 
 102.45     1765 
 102.46     1723 
 102.47     1610 
 102.48     1655 
 102.49     1660 
 102.5      1640 
 102.51     1598 
 102.52     1720 
 102.53     1691 
 102.54     1626 
 102.55     1614 
 102.56     1681 
 102.57     1540 
 102.58     1535 
 102.59     1640 
 102.6      1577 
 102.61     1554 
 102.62     1535 
 102.63     1499 
 102.64     1543 
 102.65     1519 
 102.66     1496 
 102.67     1537 
 102.68     1540 
 102.69     1499 
 102.7      1489 
 102.71     1471 
 102.72     1473 
 102.73     1494 
 102.74     1438 
 102.75     1437 
 102.76     1426 
 102.77     1421 
 102.78     1445 
 102.79     1403 
 102.8      1420 
 102.81     1423 
 102.82     1400 
 102.83     1436 
 102.84     1426 
 102.85     1329 
 102.86     1395 
 102.87     1417 
 102.88     1358 
 102.89     1350 
 102.9      1346 
 102.91     1385 
 102.92     1315 
 102.93     1421 
 102.94     1321 
 102.95     1291 
 102.96     1323 
 102.97     1357 
 102.98     1342 
 102.99     1229 
 103        1269 
 103.01     1370 
 103.02     1281 
 103.03     1287 
 103.04     1298 
 103.05     1293 
 103.06     1293 
 103.07     1256 
 103.08     1279 
 103.09     1241 
 103.1      1216 
 103.11     1233 
 103.12     1227 
 103.13     1239 
 103.14     1235 
 103.15     1263 
 103.16     1271 
 103.17     1256 
 103.18     1252 
 103.19     1246 
 103.2      1214 
 103.21     1236 
 103.22     1183 
 103.23     1236 
 103.24     1141 
 103.25     1252 
 103.26     1183 
 103.27     1193 
 103.28     1249 
 103.29     1204 
 103.3      1157 
 103.31     1155 
 103.32     1104 
 103.33     1217 
 103.34     1215 
 103.35     1155 
 103.36     1194 
 103.37     1191 
 103.38     1212 
 103.39     1098 
 103.4      1205 
 103.41     1149 
 103.42     1155 
 103.43     1102 
 103.44     1156 
 103.45     1208 
 103.46     1068 
 103.47     1216 
 103.48     1158 
 103.49     1152 
 103.5      1180 
