FILE NAME   = 3-2-100           
SAMPLE NAME = Unknow    
TARGET      = Cu
AXIS        =  1 
START ANGLE =  98 
STOP ANGLE  =  103.5 
STEP WIDTH  =  .01 
DATA NUMBER =  551 
 98         1230 
 98.01      1307 
 98.02      1309 
 98.03      1307 
 98.04      1297 
 98.05      1297 
 98.06      1331 
 98.07      1258 
 98.08      1242 
 98.09      1296 
 98.1       1273 
 98.11      1298 
 98.12      1328 
 98.13      1329 
 98.14      1303 
 98.15      1332 
 98.16      1317 
 98.17      1377 
 98.18      1456 
 98.19      1339 
 98.2       1405 
 98.21      1360 
 98.22      1400 
 98.23      1407 
 98.24      1412 
 98.25      1419 
 98.26      1439 
 98.27      1396 
 98.28      1344 
 98.29      1450 
 98.3       1424 
 98.31      1483 
 98.32      1471 
 98.33      1459 
 98.34      1497 
 98.35      1486 
 98.36      1466 
 98.37      1501 
 98.38      1521 
 98.39      1497 
 98.4       1547 
 98.41      1576 
 98.42      1540 
 98.43      1503 
 98.44      1538 
 98.45      1509 
 98.46      1497 
 98.47      1526 
 98.48      1558 
 98.49      1551 
 98.5       1520 
 98.51      1519 
 98.52      1534 
 98.53      1513 
 98.54      1576 
 98.55      1633 
 98.56      1582 
 98.57      1604 
 98.58      1620 
 98.59      1659 
 98.6       1696 
 98.61      1663 
 98.62      1676 
 98.63      1725 
 98.64      1722 
 98.65      1754 
 98.66      1692 
 98.67      1731 
 98.68      1646 
 98.69      1770 
 98.7       1656 
 98.71      1763 
 98.72      1746 
 98.73      1755 
 98.74      1702 
 98.75      1791 
 98.76      1783 
 98.77      1774 
 98.78      1827 
 98.79      1937 
 98.8       1821 
 98.81      1873 
 98.82      1925 
 98.83      1864 
 98.84      1899 
 98.85      1877 
 98.86      1903 
 98.87      1947 
 98.88      1892 
 98.89      1969 
 98.9       2029 
 98.91      1957 
 98.92      2018 
 98.93      2011 
 98.94      2138 
 98.95      2137 
 98.96      2080 
 98.97      2073 
 98.98      2235 
 98.99      2154 
 99         2121 
 99.01      2250 
 99.02      2215 
 99.03      2206 
 99.04      2320 
 99.05      2307 
 99.06      2367 
 99.07      2338 
 99.08      2349 
 99.09      2331 
 99.1       2388 
 99.11      2439 
 99.12      2383 
 99.13      2599 
 99.14      2578 
 99.15      2603 
 99.16      2586 
 99.17      2591 
 99.18      2686 
 99.19      2636 
 99.2       2663 
 99.21      2603 
 99.22      2707 
 99.23      2871 
 99.24      2821 
 99.25      2865 
 99.26      2881 
 99.27      2971 
 99.28      2956 
 99.29      3117 
 99.3       3112 
 99.31      3101 
 99.32      3267 
 99.33      3210 
 99.34      3193 
 99.35      3361 
 99.36      3443 
 99.37      3403 
 99.38      3546 
 99.39      3446 
 99.4       3595 
 99.41      3668 
 99.42      3661 
 99.43      3749 
 99.44      3718 
 99.45      4007 
 99.46      4071 
 99.47      4002 
 99.48      4183 
 99.49      4197 
 99.5       4223 
 99.51      4238 
 99.52      4268 
 99.53      4470 
 99.54      4507 
 99.55      4659 
 99.56      4729 
 99.57      4776 
 99.58      4878 
 99.59      5075 
 99.6       5139 
 99.61      5143 
 99.62      5467 
 99.63      5476 
 99.64      5575 
 99.65      5667 
 99.66      5921 
 99.67      5758 
 99.68      6164 
 99.69      6358 
 99.7       6299 
 99.71      6303 
 99.72      6742 
 99.73      6873 
 99.74      6997 
 99.75      7105 
 99.76      7235 
 99.77      7369 
 99.78      7459 
 99.79      7818 
 99.8       8012 
 99.81      8261 
 99.82      8404 
 99.83      8581 
 99.84      8715 
 99.85      9084 
 99.86      9269 
 99.87      9658 
 99.88      9845 
 99.89      10069 
 99.9       10311 
 99.91      10673 
 99.92      11123 
 99.93      11329 
 99.94      11242 
 99.95      11720 
 99.96      12420 
 99.97      12451 
 99.98      12950 
 99.99      13512 
 100        13573 
 100.01     14132 
 100.02     14421 
 100.03     14873 
 100.04     15344 
 100.05     15799 
 100.06     16364 
 100.07     16931 
 100.08     17281 
 100.09     17859 
 100.1      18177 
 100.11     19029 
 100.12     19752 
 100.13     20155 
 100.14     20765 
 100.15     21255 
 100.16     22233 
 100.17     22582 
 100.18     23476 
 100.19     24253 
 100.2      25090 
 100.21     25441 
 100.22     26547 
 100.23     27401 
 100.24     28208 
 100.25     28843 
 100.26     29549 
 100.27     30597 
 100.28     31481 
 100.29     32004 
 100.3      33177 
 100.31     34274 
 100.32     34999 
 100.33     35889 
 100.34     37138 
 100.35     38038 
 100.36     39023 
 100.37     39938 
 100.38     40822 
 100.39     41254 
 100.4      42229 
 100.41     43204 
 100.42     44169 
 100.43     44670 
 100.44     45876 
 100.45     47002 
 100.46     47430 
 100.47     48266 
 100.48     48898 
 100.49     49756 
 100.5      49754 
 100.51     50504 
 100.52     50773 
 100.53     50967 
 100.54     50989 
 100.55     51077 
 100.56     51644 
 100.57     51282 
 100.58     50580 
 100.59     50630 
 100.6      50104 
 100.61     50093 
 100.62     49059 
 100.63     48833 
 100.64     48407 
 100.65     47567 
 100.66     47170 
 100.67     46321 
 100.68     45313 
 100.69     44680 
 100.7      44445 
 100.71     43964 
 100.72     43276 
 100.73     42382 
 100.74     42251 
 100.75     41817 
 100.76     40879 
 100.77     40281 
 100.78     39778 
 100.79     39756 
 100.8      39061 
 100.81     38260 
 100.82     37739 
 100.83     37823 
 100.84     37311 
 100.85     36185 
 100.86     36186 
 100.87     35665 
 100.88     35033 
 100.89     34422 
 100.9      33620 
 100.91     33378 
 100.92     32652 
 100.93     31522 
 100.94     31089 
 100.95     30738 
 100.96     29171 
 100.97     28708 
 100.98     27937 
 100.99     27640 
 101        26151 
 101.01     25501 
 101.02     24712 
 101.03     24211 
 101.04     23402 
 101.05     22676 
 101.06     21978 
 101.07     21310 
 101.08     20557 
 101.09     19993 
 101.1      19153 
 101.11     18559 
 101.12     18156 
 101.13     17512 
 101.14     16904 
 101.15     16306 
 101.16     15988 
 101.17     15083 
 101.18     14779 
 101.19     14289 
 101.2      14093 
 101.21     13525 
 101.22     13241 
 101.23     12732 
 101.24     12203 
 101.25     12052 
 101.26     11754 
 101.27     11428 
 101.28     11087 
 101.29     10855 
 101.3      10375 
 101.31     10065 
 101.32     9959 
 101.33     9446 
 101.34     9328 
 101.35     9212 
 101.36     8923 
 101.37     8636 
 101.38     8512 
 101.39     8248 
 101.4      7924 
 101.41     7766 
 101.42     7542 
 101.43     7483 
 101.44     7353 
 101.45     7160 
 101.46     6830 
 101.47     6706 
 101.48     6552 
 101.49     6476 
 101.5      6409 
 101.51     6304 
 101.52     6060 
 101.53     5974 
 101.54     5945 
 101.55     5627 
 101.56     5644 
 101.57     5509 
 101.58     5507 
 101.59     5298 
 101.6      5138 
 101.61     5089 
 101.62     4915 
 101.63     4972 
 101.64     4864 
 101.65     4703 
 101.66     4695 
 101.67     4646 
 101.68     4318 
 101.69     4353 
 101.7      4266 
 101.71     4246 
 101.72     4199 
 101.73     4146 
 101.74     3971 
 101.75     4001 
 101.76     3929 
 101.77     3889 
 101.78     3779 
 101.79     3714 
 101.8      3595 
 101.81     3640 
 101.82     3586 
 101.83     3521 
 101.84     3590 
 101.85     3272 
 101.86     3368 
 101.87     3212 
 101.88     3252 
 101.89     3225 
 101.9      3169 
 101.91     3225 
 101.92     3026 
 101.93     3070 
 101.94     2999 
 101.95     2940 
 101.96     3015 
 101.97     2994 
 101.98     2934 
 101.99     2842 
 102        2802 
 102.01     2881 
 102.02     2689 
 102.03     2710 
 102.04     2668 
 102.05     2733 
 102.06     2584 
 102.07     2631 
 102.08     2545 
 102.09     2590 
 102.1      2475 
 102.11     2391 
 102.12     2482 
 102.13     2478 
 102.14     2465 
 102.15     2358 
 102.16     2354 
 102.17     2297 
 102.18     2313 
 102.19     2307 
 102.2      2326 
 102.21     2269 
 102.22     2209 
 102.23     2250 
 102.24     2182 
 102.25     2127 
 102.26     2130 
 102.27     2118 
 102.28     2152 
 102.29     2133 
 102.3      2167 
 102.31     2144 
 102.32     2061 
 102.33     2112 
 102.34     2014 
 102.35     1879 
 102.36     2047 
 102.37     2003 
 102.38     1971 
 102.39     1952 
 102.4      1965 
 102.41     1912 
 102.42     1880 
 102.43     1817 
 102.44     1863 
 102.45     1906 
 102.46     1755 
 102.47     1900 
 102.48     1795 
 102.49     1856 
 102.5      1794 
 102.51     1769 
 102.52     1814 
 102.53     1757 
 102.54     1825 
 102.55     1781 
 102.56     1812 
 102.57     1714 
 102.58     1752 
 102.59     1708 
 102.6      1848 
 102.61     1681 
 102.62     1690 
 102.63     1740 
 102.64     1725 
 102.65     1684 
 102.66     1728 
 102.67     1662 
 102.68     1640 
 102.69     1686 
 102.7      1608 
 102.71     1605 
 102.72     1625 
 102.73     1616 
 102.74     1689 
 102.75     1541 
 102.76     1639 
 102.77     1592 
 102.78     1507 
 102.79     1593 
 102.8      1488 
 102.81     1499 
 102.82     1596 
 102.83     1528 
 102.84     1564 
 102.85     1467 
 102.86     1555 
 102.87     1569 
 102.88     1411 
 102.89     1463 
 102.9      1460 
 102.91     1469 
 102.92     1429 
 102.93     1497 
 102.94     1458 
 102.95     1434 
 102.96     1442 
 102.97     1434 
 102.98     1480 
 102.99     1460 
 103        1438 
 103.01     1457 
 103.02     1359 
 103.03     1398 
 103.04     1449 
 103.05     1466 
 103.06     1354 
 103.07     1415 
 103.08     1326 
 103.09     1365 
 103.1      1373 
 103.11     1363 
 103.12     1394 
 103.13     1351 
 103.14     1321 
 103.15     1283 
 103.16     1365 
 103.17     1343 
 103.18     1376 
 103.19     1298 
 103.2      1342 
 103.21     1311 
 103.22     1318 
 103.23     1312 
 103.24     1315 
 103.25     1310 
 103.26     1330 
 103.27     1254 
 103.28     1281 
 103.29     1258 
 103.3      1283 
 103.31     1256 
 103.32     1231 
 103.33     1248 
 103.34     1266 
 103.35     1269 
 103.36     1265 
 103.37     1311 
 103.38     1306 
 103.39     1249 
 103.4      1292 
 103.41     1264 
 103.42     1333 
 103.43     1255 
 103.44     1205 
 103.45     1278 
 103.46     1271 
 103.47     1240 
 103.48     1147 
 103.49     1272 
 103.5      1175 
