USER: Administrator
JADE: Peak Search Report (67 Peaks, Max P/N = 80.5)
DATE: Tuesday, Nov 24, 2020 11:16a
FILE: [XRD.txt] 10         1175
SCAN: 10.02/89.998/0.02/1(sec), Cu, I(max)=23311, 11/24/20 10:57
PEAK: 13-pts/Parabolic Filter, Threshold=3.0, Cutoff=0.1%, BG=3/1.0, Peak-Top=Summit
NOTE: Intensity = Counts, 2T(0)=0.0(deg), Wavelength to Compute d-Spacing = 1.54056Å (Cu/K-alpha1)

2-Theta    d(Å)    BG  Height     I%    Area     I%   FWHM  
 10.859  8.1409  1027     158    0.6    1087    0.5  0.117
 11.701  7.5566   947     158    0.6     723    0.4  0.078
 12.143  7.2824   912     158    0.6     493    0.2  0.053
 12.321  7.1778   899     171    0.7     525    0.3  0.052
 14.531  6.0907   729     181    0.7     677    0.3  0.064
 14.799  5.9810   706     209    0.8    2039    1.0  0.166
 15.059  5.8782   708     112    0.4     601    0.3  0.091
 16.280  5.4401   661     139    0.5     510    0.3  0.062
 18.611  4.7637   475      85    0.3     449    0.2  0.090
 18.726  4.7347   464     116    0.4     423    0.2  0.062
 19.036  4.6584   455      70    0.3     535    0.3  0.130
 19.507  4.5469   444      91    0.3     591    0.3  0.110
 21.404  4.1480   391      94    0.4     279    0.1  0.050
 22.978  3.8672   340      75    0.3     549    0.3  0.124
 23.641  3.7603   318      82    0.3    1139    0.6  0.236
 23.927  3.7159   322      73    0.3     871    0.4  0.203
 24.757  3.5932   318      92    0.4     272    0.1  0.050
 25.577  3.4799   302   14903   57.1  112855   55.7  0.129
 27.990  3.1851   242      58    0.2     407    0.2  0.119
 28.385  3.1416   234      56    0.2     612    0.3  0.186
 29.258  3.0499   213      92    0.4    1162    0.6  0.215
 29.376  3.0379   217      93    0.4     842    0.4  0.154
 29.749  3.0007   219      51    0.2     306    0.2  0.102
 30.111  2.9654   203      62    0.2     385    0.2  0.106
 30.997  2.8826   199     166    0.6     853    0.4  0.087
 31.598  2.8292   188      77    0.3     755    0.4  0.167
 32.217  2.7762   191      54    0.2     324    0.2  0.102
 32.637  2.7415   180      70    0.3     529    0.3  0.128
 35.141  2.5516   195   24110   92.4  176515   87.1  0.124
 37.762  2.3803   166    9894   37.9   76072   37.5  0.131
 38.853  2.3160   146      74    0.3     787    0.4  0.181
 39.060  2.3042   145      70    0.3     978    0.5  0.238
 41.675  2.1654   158     202    0.8    1263    0.6  0.106
 43.340  2.0860   164   26106  100.0  202768  100.0  0.132
 45.342  1.9985   136      54    0.2     216    0.1  0.068
 45.342  1.9985   136      54    0.2     216    0.1  0.068
 46.177  1.9642   116     344    1.3    2700    1.3  0.133
 46.581  1.9482   112      48    0.2     312    0.2  0.110
 47.743  1.9034   116      49    0.2     338    0.2  0.117
 48.124  1.8892   115      55    0.2     397    0.2  0.123
 52.539  1.7404   139   11646   44.6   91748   45.2  0.134
 55.500  1.6543   112      78    0.3     309    0.2  0.067
 57.496  1.6016   146   22449   86.0  184475   91.0  0.140
 59.721  1.5471   124     596    2.3    4158    2.1  0.119
 61.140  1.5145   128    1007    3.9   23902   11.8  0.403
 61.298  1.5110   126    1734    6.6   17657    8.7  0.173
 66.045  1.4134   130     105    0.4     826    0.4  0.134
 66.500  1.4049   138    8487   32.5   70575   34.8  0.141
 68.198  1.3740   134   13011   49.8  110562   54.5  0.144
 70.396  1.3364   113     282    1.1    2117    1.0  0.128
 71.346  1.3209    99      36    0.1     301    0.1  0.142
 74.298  1.2755   103     347    1.3    2839    1.4  0.139
 75.663  1.2559   101      59    0.2     295    0.1  0.085
 76.184  1.2486   119      51    0.2     256    0.1  0.085
 76.859  1.2393   123    3757   14.4   32495   16.0  0.147
 77.218  1.2344   117    1918    7.3   19089    9.4  0.169
 78.230  1.2210    99      41    0.2     410    0.2  0.170
 79.625  1.2030    96      39    0.1     308    0.2  0.134
 79.777  1.2011    98      37    0.1     205    0.1  0.094
 80.406  1.1933   109     216    0.8    4090    2.0  0.322
 80.695  1.1898   102    1353    5.2   13771    6.8  0.173
 83.196  1.1602    97     213    0.8    1329    0.7  0.106
 84.354  1.1472   102    1123    4.3    9393    4.6  0.142
 85.068  1.1394   110      60    0.2     211    0.1  0.060
 86.007  1.1294    98      62    0.2     403    0.2  0.110
 86.340  1.1259    91    1054    4.0   12493    6.2  0.201
 88.996  1.0990   108    1687    6.5   14669    7.2  0.148
